#wavelength 2.35
#field 0.0 0.0 5.0
#   ttheta     IntUP    sIntUP   IntDOWN  sIntDOWN
 7.80   0.74282   0.55201   0.24785   0.29666
 8.00   0.18608   0.18170   0.16548   0.17133
 8.20   0.11034   0.11423   0.28454   0.18330
 8.40   0.31213   0.15472   0.18302   0.12327
 8.60   0.19865   0.10696   0.22528   0.11758
 8.80   0.14281   0.09175   0.23950   0.10850
 9.00   0.19768   0.08623   0.17052   0.07751
 9.20   0.25217   0.09337   0.24904   0.09609
 9.40   0.24212   0.08985   0.19075   0.08189
 9.60   0.23018   0.08172   0.29035   0.09004
 9.80   0.22141   0.07974   0.22094   0.08098
 10.00   0.26369   0.07859   0.15114   0.05897
 10.20   0.24892   0.07847   0.18130   0.06809
 10.40   0.17915   0.06131   0.13907   0.05464
 10.60   0.19904   0.06424   0.24559   0.07165
 10.80   0.23069   0.06559   0.18406   0.05638
 11.00   0.19333   0.05952   0.18312   0.05782
 11.20   0.27956   0.06707   0.23042   0.06372
 11.40   0.24724   0.06268   0.26399   0.06538
 11.60   0.14887   0.04907   0.24008   0.06128
 11.80   0.22990   0.05704   0.18639   0.05385
 12.00   0.23013   0.05714   0.25359   0.06015
 12.20   0.24661   0.05438   0.15013   0.04576
 12.40   0.23877   0.05560   0.16187   0.04622
 12.60   0.25590   0.05510   0.22775   0.05286
 12.80   0.28465   0.05644   0.16063   0.04354
 13.00   0.25184   0.05453   0.27606   0.05434
 13.20   0.25730   0.05229   0.20152   0.04709
 13.40   0.18199   0.04476   0.21523   0.04869
 13.60   0.21483   0.04582   0.18815   0.04373
 13.80   0.23724   0.04790   0.24203   0.04903
 14.00   0.23117   0.04401   0.20036   0.04292
 14.20   0.26880   0.04976   0.22255   0.04561
 14.40   0.24038   0.04665   0.26360   0.04738
 14.60   0.22465   0.04486   0.25945   0.04757
 14.80   0.22666   0.04508   0.21995   0.04274
 15.00   0.21848   0.04209   0.23380   0.04309
 15.20   0.21025   0.04069   0.23214   0.04214
 15.40   0.22396   0.03638   0.23855   0.03682
 15.60   0.24964   0.03536   0.22067   0.03422
 15.80   0.24300   0.03485   0.25805   0.03447
 16.00   0.27830   0.03621   0.22191   0.03272
 16.20   0.24835   0.03401   0.24569   0.03400
 16.40   0.24990   0.03338   0.22215   0.03204
 16.60   0.30140   0.03649   0.25415   0.03402
 16.80   0.21474   0.03098   0.22872   0.03129
 17.00   0.30518   0.03613   0.24748   0.03318
 17.20   0.25105   0.03225   0.26825   0.03329
 17.40   0.26087   0.03316   0.25514   0.03222
 17.60   0.28375   0.03375   0.26287   0.03243
 17.80   0.23884   0.03107   0.24030   0.03091
 18.00   0.29401   0.03365   0.28019   0.03272
 18.20   0.30148   0.03285   0.28228   0.03208
 18.40   0.29454   0.03272   0.30039   0.03303
 18.60   0.30571   0.03275   0.31940   0.03334
 18.80   0.34430   0.03461   0.31180   0.03321
 19.00   0.32820   0.03323   0.28356   0.03166
 19.20   0.28219   0.03076   0.31488   0.03306
 19.40   0.29597   0.03135   0.28748   0.03079
 19.60   0.29914   0.03166   0.28606   0.03110
 19.80   0.34234   0.03283   0.27940   0.03011
 20.00   0.29306   0.03025   0.27800   0.03029
 20.20   0.25954   0.02852   0.30791   0.03111
 20.40   0.31989   0.03118   0.30302   0.03019
 20.60   0.29707   0.02996   0.29496   0.03012
 20.80   0.32579   0.03103   0.27101   0.02858
 21.00   0.31084   0.03054   0.28878   0.02936
 21.20   0.32295   0.03039   0.28457   0.02869
 21.40   0.34342   0.03088   0.30376   0.02984
 21.60   0.31113   0.02922   0.32696   0.03030
 21.80   0.32903   0.03002   0.32409   0.03002
 22.00   0.33649   0.02998   0.32812   0.02950
 22.20   0.34288   0.02992   0.34730   0.03052
 22.40   0.34062   0.02977   0.31416   0.02880
 22.60   0.32223   0.02891   0.30186   0.02830
 22.80   0.36260   0.03069   0.29069   0.02787
 23.00   0.31176   0.02841   0.29356   0.02757
 23.20   0.35700   0.02924   0.32230   0.02789
 23.40   0.31546   0.02608   0.28998   0.02499
 23.60   0.32876   0.02442   0.30783   0.02372
 23.80   0.32640   0.02153   0.34634   0.02248
 24.00   0.35600   0.02233   0.36549   0.02267
 24.20   0.38823   0.02323   0.34315   0.02189
 24.40   0.34637   0.02194   0.35369   0.02186
 24.60   0.39939   0.02313   0.32896   0.02154
 24.80   0.39282   0.02292   0.35909   0.02218
 25.00   0.40112   0.02288   0.35383   0.02181
 25.20   0.38175   0.02214   0.38410   0.02222
 25.40   0.39532   0.02247   0.37005   0.02164
 25.60   0.39143   0.02225   0.36015   0.02144
 25.80   0.41718   0.02273   0.38475   0.02197
 26.00   0.47573   0.02374   0.37511   0.02165
 26.20   0.50629   0.02430   0.45726   0.02309
 26.40   0.66508   0.02671   0.51371   0.02454
 26.60   0.84804   0.02893   0.62269   0.02578
 26.80   1.14803   0.03172   0.76677   0.02778
 27.00   1.39204   0.03344   1.01832   0.03057
 27.20   1.81332   0.03595   1.16676   0.03161
 27.40   2.25600   0.03810   1.49247   0.03393
 27.60   2.61270   0.03928   1.73540   0.03510
 27.80   3.05106   0.04105   1.94309   0.03626
 28.00   3.31016   0.04153   2.05456   0.03651
 28.20   3.35126   0.04146   2.12482   0.03675
 28.40   2.89240   0.03961   1.82772   0.03496
 28.60   2.22345   0.03685   1.37709   0.03213
 28.80   1.47238   0.03247   0.95276   0.02834
 29.00   0.91868   0.02798   0.66608   0.02504
 29.20   0.61687   0.02428   0.46984   0.02190
 29.40   0.48274   0.02182   0.42394   0.02073
 29.60   0.51137   0.02246   0.43661   0.02112
 29.80   0.43489   0.02093   0.37802   0.01971
 30.00   0.44162   0.02078   0.39742   0.02003
 30.20   0.45306   0.02093   0.38141   0.01958
 30.40   0.42953   0.02058   0.39001   0.01969
 30.60   0.43208   0.02028   0.39528   0.01962
 30.80   0.42469   0.02023   0.40109   0.01973
 31.00   0.42165   0.02010   0.40346   0.01959
 31.20   0.41604   0.01985   0.39791   0.01943
 31.40   0.41400   0.01982   0.38236   0.01928
 31.60   0.39045   0.01942   0.36666   0.01872
 31.80   0.41640   0.01935   0.38711   0.01906
 32.00   0.40096   0.01870   0.35856   0.01799
 32.20   0.40466   0.01839   0.39538   0.01823
 32.40   0.40233   0.01773   0.37374   0.01720
 32.60   0.39871   0.01723   0.37478   0.01695
 32.80   0.38616   0.01690   0.37843   0.01684
 33.00   0.40020   0.01726   0.38333   0.01695
 33.20   0.39502   0.01714   0.37394   0.01663
 33.40   0.38108   0.01696   0.37132   0.01663
 33.60   0.37827   0.01680   0.37408   0.01681
 33.80   0.38207   0.01691   0.37946   0.01683
 34.00   0.38597   0.01694   0.37089   0.01661
 34.20   0.38800   0.01696   0.35710   0.01633
 34.40   0.38516   0.01697   0.38041   0.01687
 34.60   0.35896   0.01659   0.37915   0.01688
 34.80   0.38078   0.01677   0.36308   0.01660
 35.00   0.36603   0.01655   0.37295   0.01677
 35.20   0.38684   0.01705   0.36609   0.01663
 35.40   0.38312   0.01700   0.35892   0.01654
 35.60   0.38772   0.01707   0.37456   0.01680
 35.80   0.38650   0.01684   0.38013   0.01691
 36.00   0.39047   0.01707   0.35484   0.01633
 36.20   0.38710   0.01692   0.36880   0.01671
 36.40   0.38757   0.01709   0.36843   0.01658
 36.60   0.39350   0.01704   0.38007   0.01678
 36.80   0.35891   0.01644   0.39351   0.01712
 37.00   0.38480   0.01697   0.37839   0.01700
 37.20   0.39199   0.01703   0.39687   0.01702
 37.40   0.40516   0.01738   0.39567   0.01721
 37.60   0.38821   0.01704   0.39999   0.01720
 37.80   0.40135   0.01716   0.36414   0.01657
 38.00   0.37777   0.01701   0.37139   0.01674
 38.20   0.41293   0.01765   0.37587   0.01684
 38.40   0.40484   0.01735   0.38605   0.01706
 38.60   0.40123   0.01727   0.39013   0.01715
 38.80   0.41610   0.01753   0.36549   0.01660
 39.00   0.39109   0.01710   0.37704   0.01689
 39.20   0.39000   0.01704   0.39099   0.01721
 39.40   0.39564   0.01705   0.38568   0.01693
 39.60   0.39528   0.01713   0.37638   0.01673
 39.80   0.42646   0.01778   0.39181   0.01710
 40.00   0.40535   0.01737   0.38540   0.01697
 40.20   0.39517   0.01715   0.39121   0.01703
 40.40   0.39561   0.01713   0.38075   0.01704
 40.60   0.40912   0.01741   0.36210   0.01664
 40.80   0.41987   0.01761   0.39786   0.01709
 41.00   0.38850   0.01702   0.39780   0.01714
 41.20   0.38960   0.01676   0.39838   0.01685
 41.40   0.40627   0.01680   0.38812   0.01654
 41.60   0.40316   0.01680   0.38492   0.01648
 41.80   0.40945   0.01670   0.37709   0.01610
 42.00   0.40317   0.01633   0.39064   0.01618
 42.20   0.40513   0.01603   0.38001   0.01569
 42.40   0.41345   0.01627   0.39646   0.01592
 42.60   0.41479   0.01625   0.39679   0.01587
 42.80   0.40278   0.01589   0.40385   0.01592
 43.00   0.42434   0.01628   0.39892   0.01590
 43.20   0.40124   0.01594   0.40582   0.01601
 43.40   0.42354   0.01624   0.39571   0.01593
 43.60   0.39898   0.01594   0.40687   0.01605
 43.80   0.43873   0.01656   0.42979   0.01645
 44.00   0.41605   0.01626   0.41546   0.01629
 44.20   0.41444   0.01618   0.43675   0.01662
 44.40   0.39304   0.01593   0.43916   0.01656
 44.60   0.40049   0.01596   0.43541   0.01650
 44.80   0.41568   0.01625   0.47762   0.01702
 45.00   0.44654   0.01663   0.54774   0.01807
 45.20   0.44530   0.01667   0.61385   0.01884
 45.40   0.46876   0.01700   0.71649   0.01988
 45.60   0.51153   0.01758   0.82893   0.02092
 45.80   0.52643   0.01778   0.96495   0.02206
 46.00   0.56840   0.01840   1.10949   0.02314
 46.20   0.61411   0.01880   1.24066   0.02388
 46.40   0.60597   0.01878   1.36904   0.02456
 46.60   0.62691   0.01886   1.48781   0.02521
 46.80   0.64431   0.01915   1.61176   0.02585
 47.00   0.64820   0.01922   1.57464   0.02568
 47.20   0.64097   0.01913   1.52322   0.02540
 47.40   0.58174   0.01843   1.39128   0.02468
 47.60   0.56442   0.01829   1.21905   0.02383
 47.80   0.50768   0.01758   0.98149   0.02217
 48.00   0.51474   0.01758   0.77900   0.02054
 48.20   0.45098   0.01671   0.63124   0.01907
 48.40   0.46165   0.01695   0.53272   0.01788
 48.60   0.44700   0.01665   0.46956   0.01696
 48.80   0.43679   0.01654   0.46374   0.01695
 49.00   0.44816   0.01662   0.46047   0.01685
 49.20   0.45124   0.01662   0.44442   0.01660
 49.40   0.45126   0.01683   0.44619   0.01671
 49.60   0.46563   0.01696   0.46068   0.01702
 49.80   0.46163   0.01683   0.44749   0.01667
 50.00   0.44948   0.01682   0.46505   0.01686
 50.20   0.46361   0.01693   0.48761   0.01721
 50.40   0.44009   0.01649   0.44528   0.01661
 50.60   0.46717   0.01691   0.43857   0.01643
 50.80   0.46569   0.01704   0.46141   0.01691
 51.00   0.46067   0.01682   0.44907   0.01662
 51.20   0.46539   0.01693   0.46062   0.01689
 51.40   0.44121   0.01663   0.44708   0.01665
 51.60   0.49611   0.01734   0.46459   0.01698
 51.80   0.47407   0.01708   0.44616   0.01660
 52.00   0.46771   0.01665   0.46216   0.01665
 52.20   0.49680   0.01699   0.46766   0.01654
 52.40   0.49135   0.01677   0.46005   0.01633
 52.60   0.47946   0.01639   0.44183   0.01587
 52.80   0.51314   0.01671   0.45120   0.01585
 53.00   0.48435   0.01609   0.48028   0.01605
 53.20   0.53445   0.01657   0.49902   0.01610
 53.40   0.57388   0.01654   0.54169   0.01625
 53.60   0.64299   0.01701   0.59201   0.01641
 53.80   0.72249   0.01755   0.67299   0.01710
 54.00   0.82828   0.01831   0.75535   0.01778
 54.20   0.97004   0.01937   0.81956   0.01831
 54.40   1.13027   0.02030   0.95672   0.01937
 54.60   1.26810   0.02107   1.06972   0.02002
 54.80   1.39854   0.02178   1.20580   0.02082
 55.00   1.63266   0.02279   1.29989   0.02130
 55.20   1.78446   0.02332   1.43211   0.02194
 55.40   1.94840   0.02393   1.57058   0.02248
 55.60   1.99656   0.02405   1.58722   0.02258
 55.80   1.99112   0.02415   1.57886   0.02262
 56.00   1.95750   0.02401   1.53731   0.02240
 56.20   1.85860   0.02366   1.50069   0.02225
 56.40   1.67258   0.02298   1.36103   0.02170
 56.60   1.49135   0.02225   1.24721   0.02107
 56.80   1.28155   0.02126   1.12219   0.02043
 57.00   1.10541   0.02009   1.04016   0.01990
 57.20   0.93442   0.01916   0.96974   0.01941
 57.40   0.85317   0.01861   0.91984   0.01916
 57.60   0.77436   0.01807   0.89446   0.01892
 57.80   0.76309   0.01793   0.91077   0.01901
 58.00   0.77358   0.01800   0.96323   0.01939
 58.20   0.74110   0.01782   0.98066   0.01951
 58.40   0.75399   0.01776   1.00081   0.01965
 58.60   0.75356   0.01787   0.97324   0.01952
 58.80   0.72532   0.01759   0.95778   0.01934
 59.00   0.69178   0.01736   0.92611   0.01914
 59.20   0.67355   0.01717   0.85931   0.01861
 59.40   0.65857   0.01711   0.80528   0.01826
 59.60   0.64485   0.01684   0.76823   0.01786
 59.80   0.60490   0.01645   0.71029   0.01753
 60.00   0.55451   0.01594   0.63442   0.01684
 60.20   0.54221   0.01588   0.59418   0.01633
 60.40   0.54222   0.01583   0.56821   0.01612
 60.60   0.52412   0.01566   0.51928   0.01554
 60.80   0.53476   0.01573   0.52907   0.01566
 61.00   0.52262   0.01554   0.52979   0.01566
 61.20   0.49920   0.01526   0.51840   0.01552
 61.40   0.50892   0.01539   0.50312   0.01538
 61.60   0.53494   0.01574   0.49795   0.01528
 61.80   0.50820   0.01542   0.48325   0.01510
 62.00   0.54032   0.01581   0.53086   0.01568
 62.20   0.53506   0.01582   0.48834   0.01521
 62.40   0.52799   0.01564   0.52074   0.01547
 62.60   0.53088   0.01567   0.50456   0.01542
 62.80   0.52534   0.01562   0.50347   0.01535
 63.00   0.51179   0.01539   0.50035   0.01528
 63.20   0.54648   0.01579   0.52339   0.01558
 63.40   0.52523   0.01562   0.52292   0.01553
 63.60   0.52278   0.01560   0.52461   0.01564
 63.80   0.55616   0.01601   0.51838   0.01562
 64.00   0.53093   0.01573   0.50576   0.01544
 64.20   0.54331   0.01584   0.51295   0.01539
 64.40   0.55904   0.01596   0.51397   0.01542
 64.60   0.57812   0.01610   0.54557   0.01580
 64.80   0.55807   0.01596   0.50776   0.01536
 65.00   0.56736   0.01598   0.53136   0.01563
 65.20   0.57411   0.01616   0.52165   0.01557
 65.40   0.56503   0.01605   0.52529   0.01568
 65.60   0.58517   0.01623   0.52149   0.01561
 65.80   0.61438   0.01652   0.55240   0.01588
 66.00   0.61577   0.01657   0.54345   0.01584
 66.20   0.66302   0.01696   0.57103   0.01610
 66.40   0.69825   0.01713   0.57934   0.01603
 66.60   0.79070   0.01801   0.59919   0.01631
 66.80   0.83857   0.01813   0.62824   0.01647
 67.00   0.94610   0.01893   0.65449   0.01674
 67.20   1.06501   0.01959   0.67225   0.01685
 67.40   1.19141   0.02026   0.70080   0.01712
 67.60   1.31832   0.02090   0.75253   0.01758
 67.80   1.47597   0.02164   0.79490   0.01775
 68.00   1.65574   0.02237   0.85527   0.01820
 68.20   1.83499   0.02300   0.87383   0.01825
 68.40   1.97007   0.02349   0.90781   0.01852
 68.60   2.08215   0.02385   0.97359   0.01899
 68.80   2.21738   0.02424   0.96601   0.01900
 69.00   2.22317   0.02413   1.00724   0.01908
 69.20   2.24705   0.02420   0.97811   0.01894
 69.40   2.20933   0.02393   0.97140   0.01874
 69.60   2.07392   0.02338   0.92061   0.01829
 69.80   2.00252   0.02291   0.92263   0.01817
 70.00   1.77420   0.02202   0.84036   0.01756
 70.20   1.58157   0.02133   0.79459   0.01713
 70.40   1.34252   0.02025   0.72461   0.01663
 70.60   1.13917   0.01933   0.64921   0.01605
 70.80   0.99027   0.01851   0.62427   0.01587
 71.00   0.84850   0.01765   0.61469   0.01579
 71.20   0.73563   0.01673   0.58275   0.01541
 71.40   0.68858   0.01637   0.59909   0.01553
 71.60   0.63064   0.01588   0.57041   0.01526
 71.80   0.62042   0.01572   0.56619   0.01519
 72.00   0.63463   0.01589   0.57161   0.01522
 72.20   0.58805   0.01544   0.55734   0.01512
 72.40   0.61228   0.01573   0.55040   0.01501
 72.60   0.60305   0.01561   0.56046   0.01506
 72.80   0.59202   0.01547   0.58455   0.01554
 73.00   0.62314   0.01573   0.56414   0.01520
 73.20   0.60365   0.01566   0.57654   0.01536
 73.40   0.59707   0.01546   0.59261   0.01547
 73.60   0.60370   0.01565   0.59160   0.01544
 73.80   0.62170   0.01582   0.57846   0.01536
 74.00   0.62590   0.01579   0.59343   0.01560
 74.20   0.61648   0.01569   0.59532   0.01549
 74.40   0.64420   0.01591   0.64474   0.01589
 74.60   0.64767   0.01599   0.61075   0.01563
 74.80   0.70992   0.01657   0.66451   0.01622
 75.00   0.69195   0.01636   0.66553   0.01618
 75.20   0.76637   0.01699   0.69461   0.01638
 75.40   0.76101   0.01691   0.72989   0.01669
 75.60   0.82702   0.01747   0.76429   0.01691
 75.80   0.83355   0.01753   0.79765   0.01732
 76.00   0.87110   0.01779   0.82283   0.01737
 76.20   0.89207   0.01787   0.81950   0.01732
 76.40   0.87934   0.01787   0.82915   0.01742
 76.60   0.88922   0.01785   0.87320   0.01776
 76.80   0.89882   0.01803   0.82359   0.01745
 77.00   0.88493   0.01788   0.81207   0.01728
 77.20   0.87336   0.01774   0.80598   0.01722
 77.40   0.83665   0.01748   0.77979   0.01708
 77.60   0.80978   0.01736   0.76928   0.01702
 77.80   0.76540   0.01703   0.72886   0.01670
 78.00   0.72521   0.01669   0.70097   0.01643
 78.20   0.69345   0.01645   0.67920   0.01637
 78.40   0.66383   0.01614   0.64807   0.01610
 78.60   0.65826   0.01610   0.62028   0.01573
 78.80   0.65503   0.01608   0.62938   0.01585
 79.00   0.63488   0.01591   0.62549   0.01581
 79.20   0.63781   0.01592   0.62640   0.01570
 79.40   0.64579   0.01597   0.60716   0.01559
 79.60   0.63238   0.01585   0.63628   0.01588
 79.80   0.64385   0.01592   0.64317   0.01594
 80.00   0.64523   0.01606   0.61723   0.01577
 80.20   0.62670   0.01585   0.63522   0.01595
 80.40   0.63298   0.01591   0.60663   0.01562
 80.60   0.63995   0.01595   0.61325   0.01568
 80.80   0.64443   0.01593   0.64856   0.01597
 81.00   0.63969   0.01587   0.64035   0.01587
 81.20   0.65440   0.01611   0.61750   0.01573
 81.40   0.65144   0.01598   0.62673   0.01579
 81.60   0.66471   0.01614   0.62587   0.01580
 81.80   0.64987   0.01616   0.62259   0.01580
 82.00   0.65833   0.01616   0.63998   0.01598
 82.20   0.64543   0.01600   0.66228   0.01620
 82.40   0.65277   0.01609   0.62824   0.01578
 82.60   0.66268   0.01613   0.64497   0.01595
 82.80   0.63442   0.01591   0.64567   0.01602
 83.00   0.65101   0.01606   0.65756   0.01612
 83.20   0.65896   0.01610   0.63247   0.01591
 83.40   0.63896   0.01598   0.64803   0.01604
 83.60   0.65071   0.01608   0.63536   0.01589
 83.80   0.66229   0.01612   0.66388   0.01620
 84.00   0.66167   0.01611   0.66254   0.01618
 84.20   0.66974   0.01614   0.65247   0.01604
 84.40   0.64643   0.01595   0.65058   0.01599
 84.60   0.66787   0.01624   0.65003   0.01606
 84.80   0.68126   0.01622   0.67101   0.01625
 85.00   0.68727   0.01630   0.68471   0.01628
 85.20   0.66887   0.01616   0.69827   0.01645
 85.40   0.68085   0.01633   0.74161   0.01692
 85.60   0.69395   0.01641   0.71778   0.01665
 85.80   0.68322   0.01634   0.75962   0.01697
 86.00   0.69428   0.01638   0.78442   0.01709
 86.20   0.69877   0.01646   0.79137   0.01718
 86.40   0.71695   0.01661   0.80930   0.01733
 86.60   0.73924   0.01677   0.86926   0.01782
 86.80   0.74482   0.01683   0.88708   0.01785
 87.00   0.75155   0.01685   0.96390   0.01843
 87.20   0.76098   0.01698   0.96804   0.01849
 87.40   0.78670   0.01719   0.99602   0.01863
 87.60   0.76603   0.01699   1.02401   0.01873
 87.80   0.77707   0.01704   1.02146   0.01873
 88.00   0.78738   0.01716   1.01353   0.01863
 88.20   0.76966   0.01696   1.02283   0.01874
 88.40   0.77308   0.01703   1.03755   0.01887
 88.60   0.76445   0.01698   1.02560   0.01877
 88.80   0.78223   0.01707   1.00540   0.01863
 89.00   0.76753   0.01699   0.99366   0.01860
 89.20   0.78957   0.01725   0.94517   0.01829
 89.40   0.78052   0.01712   0.92861   0.01824
 89.60   0.74717   0.01680   0.87004   0.01781
 89.80   0.75989   0.01699   0.82235   0.01738
 90.00   0.72820   0.01663   0.80554   0.01728
 90.20   0.75521   0.01697   0.77489   0.01711
 90.40   0.72546   0.01672   0.75139   0.01691
 90.60   0.72454   0.01660   0.74283   0.01678
 90.80   0.75489   0.01695   0.74125   0.01669
 91.00   0.73600   0.01673   0.76260   0.01696
 91.20   0.74867   0.01697   0.74819   0.01690
 91.40   0.75353   0.01682   0.76113   0.01701
 91.60   0.75975   0.01683   0.76797   0.01699
 91.80   0.80258   0.01731   0.80888   0.01731
 92.00   0.83641   0.01750   0.78997   0.01717
 92.20   0.87390   0.01781   0.84668   0.01767
 92.40   0.86688   0.01768   0.89061   0.01790
 92.60   0.94755   0.01829   0.90795   0.01802
 92.80   0.98928   0.01857   0.95151   0.01836
 93.00   1.06768   0.01906   1.00604   0.01865
 93.20   1.12324   0.01930   1.03816   0.01882
 93.40   1.18544   0.01958   1.09616   0.01914
 93.60   1.19530   0.01966   1.14485   0.01943
 93.80   1.29739   0.02032   1.18554   0.01972
 94.00   1.31270   0.02043   1.25406   0.02006
 94.20   1.36827   0.02058   1.29383   0.02023
 94.40   1.39130   0.02067   1.32468   0.02039
 94.60   1.44381   0.02088   1.30406   0.02024
 94.80   1.41734   0.02083   1.31175   0.02033
 95.00   1.41287   0.02082   1.30648   0.02024
 95.20   1.43440   0.02083   1.33908   0.02043
 95.40   1.40921   0.02076   1.31723   0.02029
 95.60   1.40423   0.02076   1.29866   0.02029
 95.80   1.35655   0.02055   1.25034   0.02001
 96.00   1.34730   0.02042   1.22762   0.01990
 96.20   1.28615   0.02020   1.16086   0.01954
 96.40   1.22027   0.01988   1.11147   0.01930
 96.60   1.12844   0.01942   1.09425   0.01924
 96.80   1.04875   0.01897   0.99031   0.01858
 97.00   0.99938   0.01859   0.95295   0.01828
 97.20   0.95654   0.01840   0.90795   0.01810
 97.40   0.90647   0.01830   0.87118   0.01802
 97.60   0.89950   0.01822   0.85091   0.01795
 97.80   0.84251   0.01791   0.81517   0.01770
 98.00   0.82383   0.01781   0.83166   0.01796
 98.20   0.86014   0.01820   0.81697   0.01785
 98.40   0.86670   0.01831   0.84133   0.01814
 98.60   0.87922   0.01848   0.83720   0.01821
 98.80   0.86016   0.01835   0.84069   0.01821
 99.00   0.87426   0.01863   0.82350   0.01824
 99.20   0.85815   0.01851   0.84867   0.01864
 99.40   0.87047   0.01879   0.86299   0.01875
 99.60   0.84671   0.01863   0.83910   0.01857
 99.80   0.86773   0.01900   0.86958   0.01898
 100.00   0.87453   0.01909   0.86538   0.01895
 100.20   0.88521   0.01930   0.87226   0.01916
 100.40   0.90608   0.01952   0.90395   0.01951
 100.60   0.92434   0.01959   0.90543   0.01948
 100.80   0.89287   0.01956   0.86930   0.01940
 101.00   0.91346   0.01984   0.89674   0.01966
 101.20   0.92528   0.02002   0.92673   0.02002
 101.40   0.95688   0.02032   0.93818   0.02016
 101.60   0.98495   0.02064   0.91155   0.02010
 101.80   0.96534   0.02048   0.95932   0.02048
 102.00   1.00609   0.02100   0.96265   0.02063
 102.20   1.02374   0.02122   1.00517   0.02108
 102.40   1.05057   0.02133   1.03011   0.02124
 102.60   1.07501   0.02180   1.08923   0.02198
 102.80   1.14392   0.02231   1.11567   0.02219
 103.00   1.22867   0.02298   1.14707   0.02254
 103.20   1.31755   0.02350   1.20466   0.02283
 103.40   1.36344   0.02398   1.30518   0.02369
 103.60   1.44264   0.02449   1.33919   0.02393
 103.80   1.55000   0.02518   1.46096   0.02469
 104.00   1.69878   0.02601   1.57811   0.02546
 104.20   1.81118   0.02644   1.68329   0.02592
 104.40   1.96438   0.02746   1.81592   0.02689
 104.60   2.11940   0.02806   1.91819   0.02733
 104.80   2.23987   0.02880   2.06381   0.02813
 105.00   2.38798   0.02931   2.17178   0.02856
 105.20   2.46525   0.02983   2.22176   0.02904
 105.40   2.57589   0.03025   2.28333   0.02933
 105.60   2.62568   0.03071   2.39813   0.02992
 105.80   2.68154   0.03110   2.45126   0.03036
 106.00   2.78174   0.03134   2.46015   0.03031
 106.20   2.83026   0.03201   2.48158   0.03088
 106.40   2.83915   0.03211   2.51373   0.03107
 106.60   2.85016   0.03244   2.61435   0.03171
 106.80   2.84566   0.03245   2.46403   0.03121
 107.00   2.85739   0.03284   2.54122   0.03180
 107.20   2.74650   0.03259   2.48194   0.03171
 107.40   2.72770   0.03281   2.44913   0.03187
 107.60   2.64750   0.03279   2.36060   0.03175
 107.80   2.51750   0.03234   2.27252   0.03150
 108.00   2.38793   0.03250   2.13351   0.03155
 108.20   2.27191   0.03210   2.06954   0.03126
 108.40   2.14597   0.03196   1.88990   0.03082
 108.60   1.93951   0.03112   1.77676   0.03037
 108.80   1.80016   0.03079   1.67345   0.03021
 109.00   1.62924   0.03005   1.56659   0.02982
 109.20   1.54781   0.02989   1.43474   0.02925
 109.40   1.45173   0.02964   1.35865   0.02896
 109.60   1.35460   0.02894   1.33206   0.02874
 109.80   1.26579   0.02899   1.26981   0.02901
 110.00   1.27279   0.02901   1.20897   0.02852
 110.20   1.25237   0.02922   1.17212   0.02843
 110.40   1.28177   0.02968   1.16086   0.02871
 110.60   1.27861   0.03010   1.17258   0.02957
 110.80   1.25040   0.03018   1.14854   0.02929
 111.00   1.21862   0.03041   1.18797   0.03027
 111.20   1.24142   0.03079   1.17794   0.03041
 111.40   1.23287   0.03101   1.14746   0.03040
 111.60   1.25264   0.03189   1.16379   0.03108
 111.80   1.28779   0.03230   1.17432   0.03149
 112.00   1.31968   0.03311   1.19774   0.03215
 112.20   1.30757   0.03322   1.20666   0.03238
 112.40   1.36454   0.03428   1.19079   0.03299
 112.60   1.31283   0.03393   1.18227   0.03305
 112.80   1.30444   0.03460   1.14610   0.03322
 113.00   1.32706   0.03511   1.21566   0.03424
 113.20   1.34319   0.03542   1.18408   0.03401
 113.40   1.37666   0.03693   1.20753   0.03549
 113.60   1.40339   0.03728   1.12976   0.03475
 113.80   1.37487   0.03778   1.16712   0.03594
 114.00   1.31323   0.03733   1.16696   0.03617
 114.20   1.31994   0.03795   1.15400   0.03671
 114.40   1.29719   0.03825   1.15081   0.03671
 114.60   1.33070   0.03891   1.21257   0.03806
 114.80   1.34348   0.03990   1.16604   0.03818
 115.00   1.30715   0.03932   1.19233   0.03828
 115.20   1.27147   0.04022   1.13915   0.03892
 115.40   1.29696   0.04069   1.20552   0.03995
 115.60   1.28285   0.04164   1.18663   0.04051
 115.80   1.26826   0.04160   1.15001   0.04051
 116.00   1.23439   0.04240   1.17924   0.04172
 116.20   1.24150   0.04296   1.10749   0.04131
 116.40   1.17395   0.04290   1.08842   0.04216
 116.60   1.20297   0.04391   1.11947   0.04283
 116.80   1.19286   0.04456   1.16520   0.04385
 117.00   1.16881   0.04566   1.13434   0.04542
 117.20   1.15570   0.04589   1.13134   0.04552
 117.40   1.13660   0.04733   1.20173   0.04846
 117.60   1.14037   0.04752   1.13515   0.04762
 117.80   1.17599   0.05001   1.10737   0.04886
 118.00   1.18696   0.05093   1.11408   0.04945
 118.20   1.12369   0.05136   1.16850   0.05175
 118.40   1.09984   0.05238   1.15608   0.05329
 118.60   1.07320   0.05142   0.99691   0.05102
 118.80   1.12645   0.05589   1.03698   0.05473
 119.00   1.15717   0.05678   1.09415   0.05615
 119.20   1.18939   0.06076   1.18971   0.06071
 119.40   1.18880   0.06207   1.19215   0.06206
 119.60   1.10722   0.06367   1.19376   0.06519
 119.80   1.15601   0.06503   1.15697   0.06510
 120.00   1.23719   0.07017   1.12368   0.06771
 120.20   1.08709   0.07138   1.08789   0.07107
 120.40   1.15722   0.07368   1.09845   0.07222
 120.60   1.17903   0.08088   1.05195   0.07914
 120.80   1.05387   0.08002   1.09879   0.08193
 121.00   1.03551   0.08995   1.23173   0.09447
 121.20   1.28643   0.10722   1.06006   0.10089
 121.40   1.24127   0.11645   1.16087   0.11749
 121.60   1.15452   0.13469   1.39184   0.14278
 121.80   0.95778   0.15532   1.42548   0.17462
 122.00   1.14085   0.23466   1.61504   0.26088