 NaCaAlF G41 (nacalf300415-corr.dat)    CELL:   10.25168  10.25168  10.25168   90.0000   90.0000   90.0000   SPGR: I 21 3                 TEMP:      0.00
  1    800     2.42826     2.42826    -0.01134     0.00000     0.00000    0
    35     0     1
      92.30000      95.00000
 2Theta	Yobs	Ycal	Yobs-Ycal	Backg	Posr	(hkl)	K
     14.0000	   340.6	   342.1	 -2911.0	   262.2
     14.1000	   336.8	   342.2	 -2914.9	   262.3
     14.2000	   341.4	   342.1	 -2910.1	   262.1
     14.3000	   343.8	   341.9	 -2907.6	   262.0
     14.4000	   335.5	   341.7	 -2915.7	   261.8
     14.5000	   336.7	   341.5	 -2914.3	   261.6
     14.6000	   338.5	   341.4	 -2912.3	   261.4
     14.7000	   333.0	   341.2	 -2917.7	   261.3
     14.8000	   337.6	   341.0	 -2912.9	   261.1
     14.9000	   341.8	   340.9	 -2908.5	   260.9
     15.0000	   340.3	   340.7	 -2909.9	   260.8
     15.1000	   332.9	   340.5	 -2917.1	   260.6
     15.2000	   343.4	   340.3	 -2906.4	   260.4
     15.3000	   341.5	   340.2	 -2908.1	   260.2
     15.4000	   340.5	   340.0	 -2909.0	   260.1
     15.5000	   344.6	   339.8	 -2904.7	   259.9
     15.6000	   344.2	   339.6	 -2904.9	   259.7
     15.7000	   341.3	   339.5	 -2907.7	   259.6
     15.8000	   341.3	   339.3	 -2907.5	   259.4
     15.9000	   339.2	   339.1	 -2909.4	   259.2
     16.0000	   331.9	   339.0	 -2916.5	   259.0
     16.1000	   333.1	   338.8	 -2915.2	   258.9
     16.2000	   343.2	   338.6	 -2904.9	   258.7
     16.3000	   341.9	   338.4	 -2906.0	   258.5
     16.4000	   335.8	   338.3	 -2911.9	   258.4
     16.5000	   338.5	   338.1	 -2909.1	   258.2
     16.6000	   354.3	   337.9	 -2893.1	   258.0
     16.7000	   345.6	   337.8	 -2901.6	   257.8
     16.8000	   344.8	   337.6	 -2902.3	   257.7
     16.9000	   349.8	   337.4	 -2897.1	   257.5
     17.0000	   341.4	   337.2	 -2905.3	   257.3
     17.1000	   346.7	   337.1	 -2899.8	   257.1
     17.2000	   332.5	   337.0	 -2914.0	   257.0
     17.3000	   339.6	   336.9	 -2906.8	   256.8
     17.4000	   334.9	   336.7	 -2911.3	   256.6
     17.5000	   340.8	   336.6	 -2905.3	   256.5
     17.6000	   341.4	   336.4	 -2904.5	   256.3
     17.7000	   334.2	   336.3	 -2911.6	   256.1
     17.8000	   334.4	   336.1	 -2911.2	   255.9
     17.9000	   345.6	   336.0	 -2899.9	   255.8
     18.0000	   330.5	   335.9	 -2914.9	   255.6
     18.1000	   328.4	   335.8	 -2916.9	   255.5
     18.2000	   337.0	   335.8	 -2908.3	   255.4
     18.3000	   337.1	   335.9	 -2908.2	   255.3
     18.4000	   336.7	   335.9	 -2908.7	   255.2
     18.5000	   340.3	   336.1	 -2905.2	   255.2
     18.6000	   337.7	   336.3	 -2908.1	   255.1
     18.7000	   353.8	   337.1	 -2892.8	   255.0
     18.8000	   349.6	   341.3	 -2901.2	   254.9
     18.9000	   394.0	   362.4	 -2877.9	   254.8
     19.0000	   526.8	   435.0	 -2817.6	   254.8
     19.1000	   732.9	   587.4	 -2764.0	   254.7
     19.2000	   868.1	   759.2	 -2800.6	   254.6
     19.3000	   832.3	   802.0	 -2879.1	   254.5
     19.4000	   668.3	   669.8	 -2911.0	   254.5
     19.5000	   465.9	   493.4	 -2937.0	   254.4
     19.6000	   371.9	   385.3	 -2922.9	   254.3
     19.7000	   345.7	   346.4	 -2910.2	   254.2
     19.8000	   333.8	   337.3	 -2913.0	   254.2
     19.9000	   339.6	   335.6	 -2905.5	   254.1
     20.0000	   345.9	   335.0	 -2898.6	   254.0
     20.1000	   348.2	   334.7	 -2896.0	   253.9
     20.2000	   351.4	   334.5	 -2892.6	   253.9
     20.3000	   338.5	   334.3	 -2905.3	   253.8
     20.4000	   334.6	   334.1	 -2909.0	   253.7
     20.5000	   328.3	   334.0	 -2915.1	   253.6
     20.6000	   329.6	   333.8	 -2913.7	   253.6
     20.7000	   336.6	   333.7	 -2906.6	   253.5
     20.8000	   331.4	   333.6	 -2911.7	   253.4
     20.9000	   326.1	   333.5	 -2916.9	   253.3
     21.0000	   336.2	   333.4	 -2906.7	   253.2
     21.1000	   327.9	   333.3	 -2914.9	   253.2
     21.2000	   331.9	   333.2	 -2910.8	   253.1
     21.3000	   328.5	   333.1	 -2914.1	   253.0
     21.4000	   329.1	   333.0	 -2913.4	   252.9
     21.5000	   334.7	   332.8	 -2907.6	   252.9
     21.6000	   324.1	   332.7	 -2918.1	   252.8
     21.7000	   322.2	   332.6	 -2919.9	   252.7
     21.8000	   331.7	   332.6	 -2910.3	   252.6
     21.9000	   330.0	   332.5	 -2912.0	   252.6
     22.0000	   328.9	   332.4	 -2913.0	   252.5
     22.1000	   334.2	   332.3	 -2907.6	   252.4
     22.2000	   335.1	   332.3	 -2906.6	   252.3
     22.3000	   345.8	   332.2	 -2895.9	   252.3
     22.4000	   340.4	   332.1	 -2901.2	   252.2
     22.5000	   342.1	   332.0	 -2899.4	   252.1
     22.6000	   335.9	   331.9	 -2905.5	   252.0
     22.7000	   328.7	   331.9	 -2912.6	   252.0
     22.8000	   332.2	   331.8	 -2909.1	   251.9
     22.9000	   333.6	   331.7	 -2907.6	   251.8
     23.0000	   334.8	   331.6	 -2906.3	   251.7
     23.1000	   330.0	   331.6	 -2911.0	   251.6
     23.2000	   336.3	   331.5	 -2904.7	   251.6
     23.3000	   332.6	   331.4	 -2908.3	   251.5
     23.4000	   336.4	   331.3	 -2904.4	   251.4
     23.5000	   338.6	   331.3	 -2902.1	   251.3
     23.6000	   327.8	   331.2	 -2912.9	   251.3
     23.7000	   334.1	   331.1	 -2906.5	   251.2
     23.8000	   338.6	   331.0	 -2901.9	   251.1
     23.9000	   324.2	   331.0	 -2916.2	   251.0
     24.0000	   330.1	   330.9	 -2910.2	   250.9
     24.1000	   330.5	   330.7	 -2909.7	   250.8
     24.2000	   338.2	   330.6	 -2901.9	   250.7
     24.3000	   328.4	   330.5	 -2911.6	   250.6
     24.4000	   329.3	   330.4	 -2910.5	   250.4
     24.5000	   326.4	   330.2	 -2913.3	   250.3
     24.6000	   339.1	   330.1	 -2900.5	   250.2
     24.7000	   322.0	   330.0	 -2917.5	   250.1
     24.8000	   326.0	   329.9	 -2913.3	   249.9
     24.9000	   332.8	   329.7	 -2906.4	   249.8
     25.0000	   330.3	   329.6	 -2908.8	   249.7
     25.1000	   320.6	   329.5	 -2918.4	   249.6
     25.2000	   329.7	   329.4	 -2909.1	   249.4
     25.3000	   331.7	   329.9	 -2907.7	   249.3
     25.4000	   329.9	   329.8	 -2909.4	   249.2
     25.5000	   332.8	   329.8	 -2906.4	   249.1
     25.6000	   324.3	   329.7	 -2914.9	   248.9
     25.7000	   334.5	   329.7	 -2904.7	   248.8
     25.8000	   328.5	   329.7	 -2910.7	   248.7
     25.9000	   332.2	   329.7	 -2907.0	   248.6
     26.0000	   346.0	   329.8	 -2893.3	   248.4
     26.1000	   338.4	   329.9	 -2901.0	   248.3
     26.2000	   332.2	   330.1	 -2907.3	   248.2
     26.3000	   329.5	   330.3	 -2910.3	   248.0
     26.4000	   342.3	   330.7	 -2897.8	   247.9
     26.5000	   342.3	   331.2	 -2898.4	   247.8
     26.6000	   346.3	   332.0	 -2895.1	   247.7
     26.7000	   354.3	   333.2	 -2888.3	   247.5
     26.8000	   353.9	   335.9	 -2891.4	   247.4
     26.9000	   353.9	   348.4	 -2904.0	   247.3
     27.0000	   434.4	   416.0	 -2891.1	   247.2
     27.1000	   807.7	   678.1	 -2779.8	   247.0
     27.2000	  1818.0	  1307.1	 -2398.6	   246.9
     27.3000	  2525.9	  2140.8	 -2524.3	   246.8
     27.4000	  2649.7	  2508.1	 -2767.9	   246.7
     27.5000	  2022.7	  2014.4	 -2901.1	   246.5
     27.6000	  1181.1	  1177.4	 -2905.8	   246.4
     27.7000	   587.9	   612.1	 -2933.7	   246.3
     27.8000	   377.6	   395.7	 -2927.5	   246.2
     27.9000	   355.5	   343.3	 -2897.3	   246.0
     28.0000	   348.7	   333.6	 -2894.4	   245.9
     28.1000	   337.9	   331.1	 -2902.7	   245.8
     28.2000	   339.9	   329.8	 -2899.4	   245.7
     28.3000	   344.5	   328.8	 -2893.8	   245.5
     28.4000	   335.7	   328.1	 -2901.8	   245.4
     28.5000	   333.3	   327.5	 -2903.7	   245.3
     28.6000	   337.2	   327.0	 -2899.3	   245.2
     28.7000	   332.9	   326.6	 -2903.2	   245.0
     28.8000	   328.6	   326.3	 -2907.1	   244.9
     28.9000	   332.7	   325.9	 -2902.7	   244.8
     29.0000	   329.4	   325.7	 -2905.7	   244.7
     29.1000	   324.8	   325.4	 -2910.1	   244.5
     29.2000	   332.2	   325.2	 -2902.5	   244.4
     29.3000	   328.7	   325.0	 -2905.8	   244.3
     29.4000	   325.8	   324.8	 -2908.5	   244.2
     29.5000	   324.0	   324.6	 -2910.1	   244.0
     29.6000	   323.6	   323.8	 -2909.7	   243.9
     29.7000	   327.5	   323.7	 -2905.7	   243.8
     29.8000	   329.0	   323.6	 -2904.0	   243.6
     29.9000	   310.1	   323.4	 -2922.8	   243.5
     30.0000	   317.6	   323.3	 -2915.2	   243.4
     30.1000	   327.3	   323.2	 -2905.4	   243.3
     30.2000	   314.9	   323.1	 -2917.6	   243.1
     30.3000	   318.8	   323.1	 -2913.8	   243.2
     30.4000	   325.9	   323.2	 -2906.8	   243.3
     30.5000	   321.0	   323.3	 -2911.7	   243.3
     30.6000	   342.7	   323.3	 -2890.1	   243.4
     30.7000	   334.9	   323.4	 -2898.0	   243.5
     30.8000	   329.8	   323.5	 -2903.2	   243.6
     30.9000	   326.7	   323.6	 -2906.3	   243.6
     31.0000	   331.1	   323.6	 -2902.0	   243.7
     31.1000	   319.4	   323.7	 -2913.8	   243.8
     31.2000	   324.6	   323.8	 -2908.6	   243.9
     31.3000	   325.4	   323.8	 -2907.9	   243.9
     31.4000	   320.6	   323.9	 -2912.8	   244.0
     31.5000	   329.8	   324.0	 -2903.7	   244.1
     31.6000	   322.6	   325.0	 -2911.9	   244.1
     31.7000	   324.4	   325.1	 -2910.2	   244.2
     31.8000	   326.3	   325.3	 -2908.5	   244.3
     31.9000	   331.9	   325.5	 -2903.1	   244.4
     32.0000	   327.1	   325.7	 -2908.1	   244.4
     32.1000	   337.2	   326.0	 -2898.3	   244.5
     32.2000	   341.5	   326.3	 -2894.2	   244.6
     32.3000	   331.9	   326.6	 -2904.2	   244.7
     32.4000	   334.8	   327.0	 -2901.7	   244.7
     32.5000	   335.9	   327.4	 -2901.0	   244.8
     32.6000	   339.4	   328.0	 -2898.1	   244.9
     32.7000	   337.9	   328.7	 -2900.3	   244.9
     32.8000	   340.4	   329.7	 -2898.7	   245.0
     32.9000	   342.9	   330.9	 -2897.5	   245.1
     33.0000	   347.9	   332.7	 -2894.3	   245.2
     33.1000	   363.1	   336.1	 -2882.4	   245.2
     33.2000	   361.1	   349.2	 -2897.6	   245.3
     33.3000	   392.8	   419.2	 -2935.8	   245.4
     33.4000	   731.2	   705.4	 -2883.7	   245.5
     33.5000	  1783.0	  1456.6	 -2583.1	   245.5
     33.6000	  3013.8	  2599.3	 -2495.0	   245.6
     33.7000	  3477.5	  3345.1	 -2777.1	   245.7
     33.8000	  3034.3	  2939.7	 -2814.9	   245.8
     33.9000	  1998.3	  1812.8	 -2724.0	   245.8
     34.0000	   967.5	   891.7	 -2833.7	   245.9
     34.1000	   458.0	   477.6	 -2929.0	   246.0
     34.2000	   357.5	   361.9	 -2913.9	   246.0
     34.3000	   354.2	   339.2	 -2894.5	   246.1
     34.4000	   351.5	   334.5	 -2892.5	   246.2
     34.5000	   345.0	   332.6	 -2897.0	   246.3
     34.6000	   344.7	   331.3	 -2896.1	   246.3
     34.7000	   335.8	   330.5	 -2904.1	   246.4
     34.8000	   340.7	   329.8	 -2898.6	   246.5
     34.9000	   336.6	   329.4	 -2902.2	   246.6
     35.0000	   330.5	   329.0	 -2908.0	   246.6
     35.1000	   340.0	   328.7	 -2898.2	   246.7
     35.2000	   327.8	   328.5	 -2910.2	   246.8
     35.3000	   331.6	   328.4	 -2906.3	   246.9
     35.4000	   328.5	   328.3	 -2909.3	   246.9
     35.5000	   321.6	   328.2	 -2916.1	   247.0
     35.6000	   316.6	   328.1	 -2921.0	   247.1
     35.7000	   316.0	   328.1	 -2921.6	   247.1
     35.8000	   335.6	   328.1	 -2902.0	   247.2
     35.9000	   328.1	   327.2	 -2908.6	   247.3
     36.0000	   327.5	   327.3	 -2909.3	   247.4
     36.1000	   324.0	   327.4	 -2912.8	   247.4
     36.2000	   319.6	   327.4	 -2917.3	   247.5
     36.3000	   323.2	   327.5	 -2913.8	   247.6
     36.4000	   314.5	   327.5	 -2922.5	   247.6
     36.5000	   320.3	   327.4	 -2916.5	   247.4
     36.6000	   333.1	   327.3	 -2903.6	   247.3
     36.7000	   328.7	   327.1	 -2907.9	   247.2
     36.8000	   324.5	   327.0	 -2912.0	   247.1
     36.9000	   334.8	   328.4	 -2903.1	   247.0
     37.0000	   322.8	   328.4	 -2915.1	   246.9
     37.1000	   336.6	   328.5	 -2901.3	   246.8
     37.2000	   328.6	   328.5	 -2909.4	   246.7
     37.3000	   330.0	   328.6	 -2908.1	   246.5
     37.4000	   326.1	   328.8	 -2912.1	   246.4
     37.5000	   335.3	   329.0	 -2903.1	   246.3
     37.6000	   341.8	   329.2	 -2896.9	   246.2
     37.7000	   349.1	   329.5	 -2889.9	   246.1
     37.8000	   355.5	   330.0	 -2883.9	   246.0
     37.9000	   344.3	   330.5	 -2895.7	   245.9
     38.0000	   341.1	   331.2	 -2899.6	   245.7
     38.1000	   354.3	   332.2	 -2887.4	   245.6
     38.2000	   362.0	   333.6	 -2881.0	   245.5
     38.3000	   364.3	   335.4	 -2880.6	   245.4
     38.4000	   372.1	   338.2	 -2875.6	   245.3
     38.5000	   380.7	   343.8	 -2872.6	   245.2
     38.6000	   385.6	   366.1	 -2890.0	   245.1
     38.7000	   446.3	   480.5	 -2943.7	   245.0
     38.8000	   857.8	   934.1	 -2985.8	   244.8
     38.9000	  2274.3	  2118.5	 -2753.6	   244.7
     39.0000	  4252.2	  3983.2	 -2640.5	   244.6
     39.1000	  5520.4	  5385.7	 -2774.8	   244.5
     39.2000	  5145.9	  5011.0	 -2774.5	   244.4
     39.3000	  3560.8	  3241.1	 -2589.8	   244.3
     39.4000	  1778.9	  1562.9	 -2693.5	   244.2
     39.5000	   695.9	   695.2	 -2908.7	   244.1
     39.6000	   413.5	   414.5	 -2910.4	   243.9
     39.7000	   387.8	   352.0	 -2873.7	   243.8
     39.8000	   385.5	   339.5	 -2863.5	   243.7
     39.9000	   369.7	   335.3	 -2875.0	   243.6
     40.0000	   360.2	   332.7	 -2882.0	   243.5
     40.1000	   355.5	   330.8	 -2884.8	   243.4
     40.2000	   348.1	   329.4	 -2890.8	   243.3
     40.3000	   350.4	   328.3	 -2887.4	   243.1
     40.4000	   337.4	   327.4	 -2899.5	   243.0
     40.5000	   338.5	   326.7	 -2897.7	   242.9
     40.6000	   339.0	   326.1	 -2896.5	   242.8
     40.7000	   330.7	   325.5	 -2904.3	   242.7
     40.8000	   329.3	   325.1	 -2905.3	   242.6
     40.9000	   330.0	   324.7	 -2904.2	   242.5
     41.0000	   323.5	   324.4	 -2910.3	   242.4
     41.1000	   329.5	   324.0	 -2904.0	   242.2
     41.2000	   324.0	   323.7	 -2909.2	   242.1
     41.3000	   322.5	   323.5	 -2910.5	   242.0
     41.4000	   324.2	   321.8	 -2907.1	   241.9
     41.5000	   325.7	   321.7	 -2905.5	   241.8
     41.6000	   341.2	   321.6	 -2889.9	   241.7
     41.7000	   326.5	   321.7	 -2904.7	   241.6
     41.8000	   323.6	   321.6	 -2907.5	   241.4
     41.9000	   315.0	   321.6	 -2916.0	   241.3
     42.0000	   323.8	   321.5	 -2907.1	   241.2
     42.1000	   320.8	   321.4	 -2910.1	   241.1
     42.2000	   326.8	   321.3	 -2904.0	   241.0
     42.3000	   313.8	   321.3	 -2916.9	   240.9
     42.4000	   332.3	   321.3	 -2898.5	   240.9
     42.5000	   317.9	   321.3	 -2912.9	   240.8
     42.6000	   321.0	   321.4	 -2909.9	   240.8
     42.7000	   322.5	   321.5	 -2908.4	   240.8
     42.8000	   333.4	   321.6	 -2897.7	   240.7
     42.9000	   324.3	   321.7	 -2906.9	   240.7
     43.0000	   322.6	   321.9	 -2908.8	   240.7
     43.1000	   321.9	   322.2	 -2909.8	   240.7
     43.2000	   334.6	   322.6	 -2897.5	   240.6
     43.3000	   325.5	   323.3	 -2907.3	   240.6
     43.4000	   330.5	   325.8	 -2904.8	   240.6
     43.5000	   332.0	   338.1	 -2915.5	   240.6
     43.6000	   376.0	   388.6	 -2922.1	   240.5
     43.7000	   519.7	   534.7	 -2924.4	   240.5
     43.8000	   798.8	   806.9	 -2917.6	   240.5
     43.9000	  1073.5	  1096.9	 -2932.9	   240.4
     44.0000	  1180.1	  1180.3	 -2909.7	   240.4
     44.1000	  1011.0	   977.7	 -2876.2	   240.4
     44.2000	   714.4	   671.0	 -2866.0	   240.4
     44.3000	   475.4	   452.9	 -2886.9	   240.3
     44.4000	   345.9	   357.7	 -2921.2	   240.3
     44.5000	   338.6	   329.9	 -2900.8	   240.3
     44.6000	   324.2	   323.9	 -2909.2	   240.3
     44.7000	   334.2	   322.5	 -2897.8	   240.2
     44.8000	   334.7	   321.9	 -2896.7	   240.2
     44.9000	   328.8	   321.6	 -2902.2	   240.2
     45.0000	   343.4	   321.3	 -2887.3	   240.1
     45.1000	   363.6	   321.0	 -2866.9	   240.1
     45.2000	   383.6	   320.9	 -2846.7	   240.1
     45.3000	   385.3	   320.7	 -2844.9	   240.1
     45.4000	   366.5	   320.6	 -2863.6	   240.0
     45.5000	   341.6	   320.5	 -2888.4	   240.0
     45.6000	   331.4	   320.4	 -2898.5	   240.0
     45.7000	   318.3	   320.3	 -2911.5	   239.9
     45.8000	   324.1	   320.2	 -2905.6	   239.9
     45.9000	   322.5	   320.2	 -2907.1	   239.9
     46.0000	   322.6	   320.5	 -2907.3	   239.9
     46.1000	   315.0	   320.4	 -2914.9	   239.8
     46.2000	   324.8	   320.4	 -2905.1	   239.8
     46.3000	   328.4	   320.4	 -2901.5	   239.8
     46.4000	   311.5	   320.2	 -2918.2	   239.8
     46.5000	   323.7	   320.4	 -2906.2	   239.9
     46.6000	   327.8	   320.6	 -2902.3	   240.1
     46.7000	   312.4	   320.8	 -2917.9	   240.2
     46.8000	   322.7	   321.1	 -2907.9	   240.4
     46.9000	   322.8	   321.3	 -2908.0	   240.5
     47.0000	   325.5	   321.6	 -2905.6	   240.7
     47.1000	   324.7	   321.9	 -2906.7	   240.9
     47.2000	   323.6	   322.3	 -2908.2	   241.0
     47.3000	   325.3	   322.7	 -2906.9	   241.2
     47.4000	   329.4	   323.2	 -2903.2	   241.3
     47.5000	   331.6	   323.7	 -2901.6	   241.5
     47.6000	   327.3	   324.4	 -2906.6	   241.7
     47.7000	   325.8	   325.5	 -2909.2	   241.8
     47.8000	   340.7	   328.3	 -2897.0	   242.0
     47.9000	   345.5	   339.8	 -2903.7	   242.1
     48.0000	   373.5	   387.6	 -2923.6	   242.3
     48.1000	   517.0	   537.1	 -2929.6	   242.4
     48.2000	   864.2	   858.9	 -2904.1	   242.6
     48.3000	  1294.4	  1300.7	 -2915.8	   242.8
     48.4000	  1643.5	  1608.3	 -2874.3	   242.9
     48.5000	  1603.2	  1529.1	 -2835.4	   243.1
     48.6000	  1248.7	  1133.4	 -2794.2	   243.2
     48.7000	   805.0	   717.2	 -2821.7	   243.4
     48.8000	   470.5	   464.6	 -2903.6	   243.5
     48.9000	   349.2	   363.5	 -2923.8	   243.7
     49.0000	   338.6	   335.1	 -2906.0	   243.9
     49.1000	   333.9	   328.9	 -2904.5	   244.0
     49.2000	   342.8	   327.5	 -2894.1	   244.2
     49.3000	   321.5	   326.9	 -2914.9	   244.3
     49.4000	   326.3	   326.5	 -2909.7	   244.5
     49.5000	   323.1	   326.3	 -2912.7	   244.6
     49.6000	   321.1	   326.2	 -2914.6	   244.8
     49.7000	   339.0	   326.1	 -2896.6	   245.0
     49.8000	   325.6	   326.1	 -2910.0	   245.1
     49.9000	   327.2	   326.1	 -2908.4	   245.3
     50.0000	   318.4	   326.2	 -2917.3	   245.4
     50.1000	   334.6	   326.8	 -2901.7	   245.6
     50.2000	   319.9	   326.9	 -2916.5	   245.7
     50.3000	   320.2	   327.1	 -2916.3	   245.9
     50.4000	   324.1	   327.2	 -2912.6	   246.1
     50.5000	   324.8	   327.4	 -2912.1	   246.2
     50.6000	   329.5	   327.6	 -2907.6	   246.4
     50.7000	   332.9	   327.8	 -2904.4	   246.5
     50.8000	   330.1	   328.1	 -2907.4	   246.7
     50.9000	   329.7	   328.0	 -2907.8	   246.9
     51.0000	   339.3	   328.3	 -2898.5	   247.1
     51.1000	   343.4	   328.7	 -2894.8	   247.3
     51.2000	   327.8	   329.1	 -2910.8	   247.5
     51.3000	   341.0	   329.6	 -2898.0	   247.7
     51.4000	   339.5	   330.1	 -2900.1	   247.9
     51.5000	   341.7	   330.7	 -2898.5	   248.1
     51.6000	   341.8	   331.4	 -2899.1	   248.2
     51.7000	   350.2	   332.4	 -2891.6	   248.4
     51.8000	   348.8	   333.7	 -2894.4	   248.6
     51.9000	   347.4	   336.4	 -2898.5	   248.8
     52.0000	   349.6	   346.3	 -2906.2	   249.0
     52.1000	   369.7	   387.0	 -2926.8	   249.2
     52.2000	   497.2	   524.1	 -2936.4	   249.4
     52.3000	   816.7	   862.0	 -2954.7	   249.6
     52.4000	  1384.7	  1437.3	 -2962.1	   249.8
     52.5000	  1973.7	  2053.0	 -2988.7	   249.9
     52.6000	  2327.5	  2316.4	 -2898.4	   250.1
     52.7000	  2162.1	  2017.7	 -2765.1	   250.3
     52.8000	  1626.5	  1393.5	 -2676.4	   250.5
     52.9000	   968.7	   831.7	 -2772.5	   250.7
     53.0000	   517.2	   511.0	 -2903.3	   250.9
     53.1000	   383.4	   384.1	 -2910.1	   251.1
     53.2000	   353.5	   347.3	 -2903.3	   251.3
     53.3000	   339.4	   338.8	 -2908.8	   251.5
     53.4000	   347.2	   336.6	 -2898.9	   251.6
     53.5000	   334.7	   335.7	 -2910.5	   251.8
     53.6000	   334.2	   335.2	 -2910.5	   252.0
     53.7000	   340.9	   334.8	 -2903.4	   252.2
     53.8000	   337.2	   334.6	 -2906.9	   252.4
     53.9000	   339.0	   334.9	 -2905.4	   252.6
     54.0000	   332.0	   334.9	 -2912.3	   252.8
     54.1000	   331.1	   334.9	 -2913.2	   253.0
     54.2000	   331.9	   334.9	 -2912.5	   253.2
     54.3000	   338.7	   335.0	 -2905.8	   253.4
     54.4000	   322.2	   335.1	 -2922.4	   253.5
     54.5000	   329.8	   335.3	 -2915.0	   253.7
     54.6000	   340.5	   335.5	 -2904.4	   253.9
     54.7000	   334.0	   335.7	 -2911.1	   254.1
     54.8000	   343.7	   335.9	 -2901.7	   254.3
     54.9000	   333.7	   336.4	 -2912.1	   254.7
     55.0000	   338.3	   337.0	 -2908.1	   255.2
     55.1000	   336.8	   337.6	 -2910.3	   255.7
     55.2000	   335.2	   337.8	 -2912.0	   256.2
     55.3000	   326.6	   338.5	 -2921.4	   256.7
     55.4000	   332.5	   339.4	 -2916.4	   257.2
     55.5000	   343.0	   340.3	 -2906.8	   257.7
     55.6000	   344.0	   341.4	 -2906.9	   258.2
     55.7000	   352.2	   342.8	 -2900.0	   258.7
     55.8000	   338.2	   345.1	 -2916.4	   259.2
     55.9000	   354.7	   352.1	 -2906.9	   259.7
     56.0000	   381.5	   378.5	 -2906.5	   260.2
     56.1000	   447.8	   465.2	 -2926.9	   260.8
     56.2000	   673.2	   684.4	 -2920.7	   261.3
     56.3000	  1021.4	  1087.5	 -2975.6	   261.8
     56.4000	  1473.9	  1593.7	 -3029.3	   262.3
     56.5000	  1837.9	  1951.6	 -3023.2	   262.8
     56.6000	  1896.3	  1916.9	 -2930.0	   263.3
     56.7000	  1602.2	  1515.7	 -2823.0	   263.8
     56.8000	  1081.5	  1013.7	 -2841.7	   264.3
     56.9000	   616.8	   640.7	 -2933.3	   264.8
     57.0000	   392.1	   449.0	 -2966.4	   265.3
     57.1000	   366.2	   377.3	 -2920.6	   265.8
     57.2000	   367.1	   357.0	 -2899.3	   266.3
     57.3000	   359.2	   352.2	 -2902.5	   266.8
     57.4000	   347.2	   351.2	 -2913.4	   267.3
     57.5000	   349.4	   351.7	 -2911.8	   267.8
     57.6000	   354.3	   351.8	 -2906.9	   268.3
     57.7000	   345.9	   351.9	 -2915.5	   268.8
     57.8000	   349.6	   352.2	 -2912.1	   269.3
     57.9000	   356.3	   352.5	 -2905.7	   269.8
     58.0000	   353.0	   352.9	 -2909.4	   270.3
     58.1000	   349.7	   353.4	 -2913.2	   270.9
     58.2000	   349.0	   353.9	 -2914.4	   271.4
     58.3000	   356.2	   354.4	 -2907.7	   271.9
     58.4000	   350.5	   355.0	 -2914.0	   272.4
     58.5000	   354.0	   355.6	 -2911.1	   272.9
     58.6000	   352.9	   356.3	 -2912.9	   273.4
     58.7000	   353.0	   357.1	 -2913.5	   273.9
     58.8000	   355.3	   357.9	 -2912.0	   274.4
     58.9000	   348.1	   358.7	 -2920.1	   274.9
     59.0000	   369.6	   359.7	 -2899.6	   275.4
     59.1000	   362.6	   360.8	 -2907.7	   276.0
     59.2000	   363.2	   362.1	 -2908.4	   276.5
     59.3000	   368.7	   363.3	 -2904.0	   277.0
     59.4000	   378.0	   365.3	 -2896.7	   277.5
     59.5000	   379.3	   368.6	 -2898.7	   278.0
     59.6000	   384.8	   377.3	 -2902.0	   278.5
     59.7000	   411.9	   408.6	 -2906.2	   279.0
     59.8000	   510.9	   514.5	 -2913.1	   279.6
     59.9000	   787.4	   804.3	 -2926.4	   280.1
     60.0000	  1598.7	  1411.5	 -2722.3	   280.6
     60.1000	  2206.3	  2346.9	 -3050.0	   281.1
     60.2000	  3103.3	  3327.6	 -3133.8	   281.6
     60.3000	  3685.6	  3843.1	 -3067.0	   282.1
     60.4000	  3646.8	  3557.7	 -2820.4	   282.6
     60.5000	  2924.5	  2663.2	 -2648.2	   283.1
     60.6000	  1851.4	  1670.1	 -2728.2	   283.7
     60.7000	   878.6	   954.4	 -2985.2	   284.2
     60.8000	   464.4	   581.6	 -3026.6	   284.7
     60.9000	   406.8	   435.1	 -2937.8	   285.2
     61.0000	   404.7	   391.2	 -2895.9	   285.7
     61.1000	   389.6	   379.5	 -2899.4	   286.2
     61.2000	   383.4	   376.5	 -2902.5	   286.7
     61.3000	   365.0	   375.4	 -2919.8	   287.3
     61.4000	   377.3	   374.8	 -2907.0	   287.8
     61.5000	   362.6	   374.6	 -2921.5	   288.3
     61.6000	   363.5	   374.6	 -2920.6	   288.8
     61.7000	   374.8	   374.7	 -2909.4	   289.3
     61.8000	   377.0	   375.0	 -2907.4	   289.8
     61.9000	   358.6	   375.3	 -2926.2	   290.4
     62.0000	   375.4	   376.2	 -2910.3	   291.3
     62.1000	   384.0	   377.2	 -2902.6	   292.2
     62.2000	   371.8	   378.2	 -2915.9	   293.1
     62.3000	   393.2	   379.3	 -2895.6	   294.0
     62.4000	   395.6	   380.5	 -2894.4	   294.9
     62.5000	   414.2	   381.9	 -2877.2	   295.8
     62.6000	   426.8	   383.4	 -2866.0	   296.8
     62.7000	   448.9	   385.0	 -2845.6	   297.7
     62.8000	   447.0	   386.9	 -2849.4	   298.6
     62.9000	   460.1	   389.2	 -2838.5	   299.5
     63.0000	   447.7	   392.0	 -2853.8	   300.4
     63.1000	   448.7	   396.7	 -2857.5	   301.3
     63.2000	   428.7	   408.2	 -2889.0	   302.2
     63.3000	   448.3	   449.3	 -2910.4	   303.2
     63.4000	   564.5	   579.7	 -2924.6	   304.1
     63.5000	   938.2	   923.6	 -2894.8	   305.0
     63.6000	  1638.8	  1640.0	 -2910.7	   305.9
     63.7000	  2656.9	  2780.2	 -3032.7	   306.8
     63.8000	  3743.3	  4092.6	 -3258.8	   307.7
     63.9000	  4557.6	  5017.7	 -3369.6	   308.6
     64.0000	  5054.7	  5035.4	 -2890.2	   309.6
     64.1000	  4473.2	  4135.3	 -2571.6	   310.5
     64.2000	  3208.1	  2827.5	 -2528.9	   311.4
     64.3000	  1763.1	  1680.0	 -2826.4	   312.3
     64.4000	   749.9	   951.3	 -3110.9	   313.2
     64.5000	   485.3	   599.6	 -3023.8	   314.1
     64.6000	   444.1	   466.6	 -2932.0	   315.1
     64.7000	   433.2	   425.9	 -2902.2	   316.0
     64.8000	   437.1	   415.2	 -2887.6	   316.9
     64.9000	   419.0	   412.4	 -2902.9	   317.8
     65.0000	   408.5	   411.6	 -2912.6	   318.7
     65.1000	   407.9	   411.4	 -2913.0	   319.6
     65.2000	   408.0	   411.7	 -2913.1	   320.5
     65.3000	   395.6	   412.2	 -2926.0	   321.5
     65.4000	   410.7	   412.9	 -2911.7	   322.4
     65.5000	   412.6	   413.2	 -2910.1	   322.6
     65.6000	   397.5	   412.8	 -2924.8	   322.0
     65.7000	   410.4	   412.6	 -2911.6	   321.4
     65.8000	   425.6	   412.6	 -2896.4	   320.7
     65.9000	   412.2	   412.8	 -2910.1	   320.1
     66.0000	   416.4	   413.3	 -2906.4	   319.5
     66.1000	   439.2	   414.1	 -2884.4	   318.8
     66.2000	   467.1	   415.3	 -2857.7	   318.2
     66.3000	   449.2	   417.1	 -2877.4	   317.6
     66.4000	   468.6	   419.7	 -2860.6	   316.9
     66.5000	   501.4	   424.0	 -2832.1	   316.3
     66.6000	   506.9	   433.9	 -2836.4	   315.7
     66.7000	   532.6	   464.8	 -2841.6	   315.1
     66.8000	   604.2	   568.6	 -2873.8	   314.4
     66.9000	   925.9	   880.4	 -2864.0	   313.8
     67.0000	  1837.7	  1658.3	 -2730.1	   313.2
     67.1000	  3433.4	  3226.8	 -2702.9	   312.5
     67.2000	  5612.7	  5707.4	 -3004.2	   311.9
     67.3000	  7987.6	  8662.7	 -3584.6	   311.3
     67.4000	  9845.1	 11024.1	 -4088.5	   310.6
     67.5000	 11042.3	 11637.9	 -3505.1	   310.0
     67.6000	 10657.0	 10163.9	 -2416.4	   309.4
     67.7000	  8290.1	  7390.4	 -2009.8	   308.8
     67.8000	  4958.0	  4538.3	 -2489.8	   308.1
     67.9000	  2035.4	  2434.3	 -3308.4	   307.5
     68.0000	   793.3	  1238.8	 -3355.0	   306.9
     68.1000	   576.2	   698.4	 -3031.6	   306.2
     68.2000	   532.3	   498.7	 -2875.8	   305.6
     68.3000	   496.8	   435.2	 -2847.9	   305.0
     68.4000	   476.3	   415.4	 -2848.6	   304.4
     68.5000	   477.7	   407.5	 -2839.2	   303.7
     68.6000	   468.7	   402.7	 -2843.5	   303.1
     68.7000	   466.8	   399.1	 -2841.8	   302.5
     68.8000	   480.5	   396.2	 -2825.1	   301.8
     68.9000	   482.6	   393.7	 -2820.6	   301.2
     69.0000	   491.1	   391.5	 -2809.9	   300.6
     69.1000	   482.6	   389.6	 -2816.5	   299.9
     69.2000	   469.2	   388.0	 -2828.2	   299.3
     69.3000	   442.1	   386.5	 -2853.8	   298.7
     69.4000	   444.1	   385.1	 -2850.5	   298.1
     69.5000	   421.0	   383.9	 -2872.3	   297.4
     69.6000	   415.4	   382.7	 -2876.8	   296.8
     69.7000	   401.4	   381.6	 -2889.7	   296.2
     69.8000	   384.7	   380.6	 -2905.4	   295.5
     69.9000	   416.5	   379.7	 -2872.7	   294.9
     70.0000	   375.8	   379.0	 -2912.6	   294.3
     70.1000	   372.3	   378.7	 -2915.9	   293.7
     70.2000	   372.4	   380.3	 -2917.4	   293.6
     70.3000	   371.6	   385.5	 -2923.4	   293.6
     70.4000	   378.5	   398.4	 -2929.4	   293.5
     70.5000	   421.9	   424.3	 -2911.9	   293.5
     70.6000	   456.3	   466.1	 -2919.3	   293.4
     70.7000	   493.4	   516.3	 -2932.4	   293.4
     70.8000	   534.9	   566.6	 -2941.2	   293.3
     70.9000	   568.9	   590.8	 -2931.4	   293.2
     71.0000	   586.9	   578.9	 -2901.5	   293.2
     71.1000	   564.5	   536.9	 -2881.9	   293.1
     71.2000	   484.9	   483.5	 -2908.1	   293.1
     71.3000	   430.3	   436.7	 -2915.9	   293.0
     71.4000	   390.0	   405.2	 -2924.6	   293.0
     71.5000	   366.4	   388.2	 -2931.2	   292.9
     71.6000	   363.1	   380.7	 -2927.1	   292.9
     71.7000	   370.5	   378.1	 -2917.1	   292.8
     71.8000	   371.8	   377.4	 -2915.1	   292.8
     71.9000	   382.0	   377.4	 -2904.8	   292.7
     72.0000	   369.5	   377.5	 -2917.5	   292.6
     72.1000	   370.6	   377.8	 -2916.7	   292.6
     72.2000	   370.5	   378.3	 -2917.3	   292.6
     72.3000	   382.5	   379.0	 -2905.9	   292.8
     72.4000	   372.8	   379.7	 -2916.4	   293.0
     72.5000	   375.7	   380.6	 -2914.4	   293.1
     72.6000	   390.8	   381.6	 -2900.3	   293.3
     72.7000	   379.9	   382.8	 -2912.4	   293.4
     72.8000	   402.5	   384.2	 -2891.2	   293.6
     72.9000	   407.6	   385.8	 -2887.7	   293.8
     73.0000	   404.6	   387.9	 -2892.7	   293.9
     73.1000	   409.0	   390.4	 -2890.9	   294.1
     73.2000	   437.9	   394.2	 -2865.8	   294.3
     73.3000	   433.7	   401.7	 -2877.5	   294.4
     73.4000	   466.1	   421.7	 -2865.1	   294.6
     73.5000	   512.1	   480.5	 -2877.9	   294.8
     73.6000	   693.1	   642.8	 -2859.1	   294.9
     73.7000	  1193.9	  1034.7	 -2750.2	   295.1
     73.8000	  2194.9	  1838.6	 -2553.1	   295.3
     73.9000	  3521.9	  3212.8	 -2600.4	   295.4
     74.0000	  5121.3	  5130.6	 -2918.8	   295.6
     74.1000	  6713.3	  7232.2	 -3428.3	   295.7
     74.2000	  7900.1	  8859.8	 -3869.2	   295.9
     74.3000	  8892.3	  9360.3	 -3377.4	   296.1
     74.4000	  9142.8	  8508.1	 -2274.8	   296.2
     74.5000	  7653.4	  6680.2	 -1936.3	   296.4
     74.6000	  5412.8	  4572.9	 -2069.6	   296.6
     74.7000	  2815.1	  2782.5	 -2876.9	   296.7
     74.8000	  1123.1	  1571.2	 -3357.6	   296.9
     74.9000	   633.9	   898.2	 -3173.7	   297.1
     75.0000	   527.5	   585.0	 -2967.0	   297.2
     75.1000	   485.4	   460.6	 -2884.7	   297.4
     75.2000	   456.1	   417.0	 -2870.4	   297.6
     75.3000	   449.6	   402.3	 -2862.1	   297.7
     75.4000	   445.3	   396.6	 -2860.7	   297.9
     75.5000	   445.7	   393.5	 -2857.3	   298.0
     75.6000	   428.8	   391.5	 -2872.1	   298.2
     75.7000	   423.2	   389.9	 -2876.1	   298.4
     75.8000	   424.9	   388.6	 -2873.2	   298.5
     75.9000	   430.6	   387.6	 -2866.5	   298.7
     76.0000	   417.5	   386.8	 -2878.7	   298.9
     76.1000	   400.8	   386.1	 -2894.8	   299.0
     76.2000	   396.3	   385.6	 -2898.7	   299.2
     76.3000	   406.8	   385.1	 -2887.8	   299.4
     76.4000	   387.4	   384.7	 -2906.8	   299.5
     76.5000	   382.2	   384.5	 -2911.7	   299.7
     76.6000	   376.7	   384.2	 -2917.0	   299.9
     76.7000	   386.6	   384.0	 -2906.9	   300.0
     76.8000	   385.5	   383.9	 -2907.8	   300.2
     76.9000	   383.1	   385.2	 -2911.6	   300.3
     77.0000	   379.4	   385.7	 -2915.7	   301.0
     77.1000	   383.3	   386.5	 -2912.7	   302.0
     77.2000	   400.4	   387.4	 -2896.5	   303.0
     77.3000	   412.4	   388.3	 -2885.4	   304.0
     77.4000	   468.9	   389.3	 -2829.8	   305.0
     77.5000	   480.0	   390.2	 -2819.7	   306.0
     77.6000	   544.0	   391.2	 -2756.7	   307.0
     77.7000	   580.1	   392.2	 -2721.6	   308.0
     77.8000	   620.3	   393.3	 -2682.4	   309.0
     77.9000	   630.0	   392.5	 -2672.0	   310.0
     78.0000	   639.8	   393.7	 -2663.3	   311.0
     78.1000	   576.9	   394.9	 -2727.4	   312.0
     78.2000	   522.4	   396.1	 -2783.2	   313.0
     78.3000	   454.2	   397.3	 -2852.6	   314.0
     78.4000	   400.1	   398.6	 -2908.0	   315.0
     78.5000	   392.6	   399.9	 -2916.8	   316.0
     78.6000	   398.5	   401.3	 -2912.3	   317.0
     78.7000	   386.5	   402.7	 -2925.7	   318.0
     78.8000	   400.9	   404.3	 -2912.9	   319.2
     78.9000	   390.2	   406.2	 -2925.4	   320.5
     79.0000	   405.3	   408.1	 -2912.3	   321.8
     79.1000	   406.1	   410.1	 -2913.5	   323.1
     79.2000	   412.3	   412.2	 -2909.4	   324.4
     79.3000	   427.9	   414.5	 -2896.1	   325.7
     79.4000	   440.8	   417.0	 -2885.7	   327.0
     79.5000	   466.3	   419.8	 -2863.0	   328.3
     79.6000	   480.8	   423.2	 -2851.8	   329.6
     79.7000	   505.9	   427.8	 -2831.3	   330.9
     79.8000	   530.5	   436.1	 -2815.1	   332.2
     79.9000	   555.0	   456.6	 -2811.1	   333.5
     80.0000	   583.5	   506.0	 -2831.9	   334.8
     80.1000	   704.3	   626.3	 -2831.5	   336.1
     80.2000	  1038.9	   891.7	 -2762.3	   337.4
     80.3000	  1730.0	  1407.4	 -2586.9	   338.7
     80.4000	  2668.0	  2276.9	 -2518.4	   340.0
     80.5000	  3759.0	  3531.6	 -2682.0	   341.3
     80.6000	  4912.1	  5048.5	 -3045.9	   342.6
     80.7000	  5930.5	  6520.4	 -3499.3	   343.9
     80.8000	  6809.4	  7532.0	 -3632.1	   345.2
     80.9000	  7452.7	  7741.2	 -3198.0	   346.5
     81.0000	  7558.9	  7071.8	 -2422.3	   347.8
     81.1000	  6660.2	  5762.5	 -2011.8	   349.1
     81.2000	  4927.3	  4221.2	 -2203.4	   350.4
     81.3000	  2923.6	  2821.9	 -2807.7	   351.7
     81.4000	  1354.5	  1774.1	 -3329.1	   353.0
     81.5000	   740.5	  1108.9	 -3277.8	   354.3
     81.6000	   551.3	   745.3	 -3103.5	   355.6
     81.7000	   494.2	   572.4	 -2987.7	   356.9
     81.8000	   491.1	   500.2	 -2918.6	   358.2
     81.9000	   461.8	   473.3	 -2921.0	   359.5
     82.0000	   453.0	   464.2	 -2920.6	   360.8
     82.1000	   446.1	   461.3	 -2924.7	   362.1
     82.2000	   436.5	   460.6	 -2933.6	   363.4
     82.3000	   444.2	   460.7	 -2926.0	   364.7
     82.4000	   446.7	   461.3	 -2924.1	   366.0
     82.5000	   451.7	   462.3	 -2920.0	   367.3
     82.6000	   441.0	   462.0	 -2930.5	   367.1
     82.7000	   447.6	   461.2	 -2923.1	   365.9
     82.8000	   440.7	   460.9	 -2929.7	   364.8
     82.9000	   453.3	   461.9	 -2918.1	   363.6
     83.0000	   466.3	   466.1	 -2909.3	   362.4
     83.1000	   472.3	   479.0	 -2916.1	   361.2
     83.2000	   495.1	   513.7	 -2928.0	   360.1
     83.3000	   615.3	   597.1	 -2891.3	   358.9
     83.4000	   855.0	   775.9	 -2830.4	   357.7
     83.5000	  1354.9	  1114.5	 -2669.0	   356.5
     83.6000	  1996.9	  1677.9	 -2590.4	   355.4
     83.7000	  2679.9	  2493.7	 -2723.3	   354.2
     83.8000	  3453.3	  3505.7	 -2961.9	   353.0
     83.9000	  4176.5	  4549.3	 -3282.2	   351.8
     84.0000	  4746.0	  5378.7	 -3542.2	   350.7
     84.1000	  5318.0	  5753.7	 -3345.2	   349.5
     84.2000	  5644.3	  5552.5	 -2817.7	   348.3
     84.3000	  5289.7	  4840.8	 -2460.6	   347.1
     84.4000	  4459.9	  3833.6	 -2283.2	   346.0
     84.5000	  3120.8	  2786.4	 -2575.0	   344.8
     84.6000	  1731.9	  1895.2	 -3072.8	   343.6
     84.7000	   891.2	  1249.7	 -3267.9	   342.4
     84.8000	   600.5	   843.9	 -3152.9	   341.2
     84.9000	   492.1	   618.4	 -3035.7	   340.1
     85.0000	   458.7	   508.3	 -2959.1	   338.9
     85.1000	   438.1	   459.3	 -2930.7	   337.7
     85.2000	   447.7	   438.8	 -2900.6	   336.5
     85.3000	   422.6	   430.0	 -2916.9	   335.4
     85.4000	   425.5	   425.6	 -2909.6	   334.2
     85.5000	   419.8	   422.7	 -2912.4	   333.0
     85.6000	   411.7	   420.4	 -2918.2	   331.8
     85.7000	   415.9	   418.2	 -2911.8	   330.5
     85.8000	   405.1	   414.3	 -2918.7	   327.0
     85.9000	   403.1	   410.3	 -2916.7	   323.4
     86.0000	   396.9	   406.4	 -2919.0	   319.9
     86.1000	   400.9	   402.9	 -2911.5	   316.4
     86.2000	   390.5	   400.0	 -2919.0	   312.8
     86.3000	   398.9	   402.0	 -2912.6	   312.7
     86.4000	   402.2	   407.4	 -2914.7	   312.7
     86.5000	   414.2	   419.6	 -2914.9	   312.6
     86.6000	   455.2	   444.3	 -2898.6	   312.6
     86.7000	   516.5	   488.6	 -2881.6	   312.5
     86.8000	   593.0	   559.3	 -2875.7	   312.5
     86.9000	   691.4	   658.8	 -2876.8	   312.4
     87.0000	   766.5	   780.7	 -2923.7	   312.4
     87.1000	   870.7	   907.5	 -2946.3	   312.4
     87.2000	   932.9	  1013.1	 -2989.7	   312.3
     87.3000	  1014.2	  1070.6	 -2965.9	   312.3
     87.4000	  1074.6	  1063.5	 -2898.4	   312.2
     87.5000	  1050.1	   994.0	 -2853.3	   312.2
     87.6000	   988.0	   881.4	 -2802.9	   312.1
     87.7000	   838.5	   753.4	 -2824.4	   312.1
     87.8000	   651.6	   634.8	 -2892.7	   312.0
     87.9000	   509.7	   540.8	 -2940.6	   312.0
     88.0000	   431.9	   475.8	 -2953.3	   311.9
     88.1000	   402.5	   435.9	 -2942.9	   311.9
     88.2000	   391.8	   414.1	 -2931.7	   311.8
     88.3000	   380.9	   403.3	 -2931.9	   311.8
     88.4000	   390.6	   397.5	 -2916.4	   311.7
     88.5000	   389.3	   395.5	 -2915.7	   311.7
     88.6000	   392.4	   394.8	 -2911.9	   311.7
     88.7000	   374.9	   395.3	 -2929.8	   312.4
     88.8000	   387.7	   396.8	 -2918.6	   313.1
     88.9000	   393.5	   397.6	 -2913.6	   313.8
     89.0000	   388.1	   398.5	 -2919.9	   314.5
     89.1000	   395.4	   399.6	 -2913.7	   315.2
     89.2000	   399.2	   400.9	 -2911.2	   315.9
     89.3000	   395.8	   403.0	 -2916.7	   316.6
     89.4000	   400.7	   406.9	 -2915.6	   317.3
     89.5000	   421.9	   414.8	 -2902.4	   317.9
     89.6000	   433.8	   431.5	 -2907.2	   318.6
     89.7000	   470.1	   464.5	 -2903.8	   319.3
     89.8000	   575.4	   525.0	 -2859.1	   320.0
     89.9000	   725.1	   626.4	 -2810.8	   320.7
     90.0000	   883.7	   779.5	 -2805.3	   321.4
     90.1000	  1030.5	   986.6	 -2865.6	   322.1
     90.2000	  1230.7	  1233.7	 -2912.5	   322.8
     90.3000	  1393.3	  1488.2	 -3004.4	   323.5
     90.4000	  1551.4	  1703.2	 -3061.3	   324.2
     90.5000	  1674.0	  1830.4	 -3065.8	   324.9
     90.6000	  1780.8	  1837.7	 -2966.4	   325.6
     90.7000	  2014.8	  1723.4	 -2618.1	   326.3
     90.8000	  1704.9	  1517.0	 -2721.6	   327.0
     90.9000	  1419.7	  1265.9	 -2755.7	   327.7
     91.0000	  1056.9	  1017.8	 -2870.4	   328.4
     91.1000	   729.3	   807.4	 -2987.5	   329.1
     91.2000	   529.2	   650.2	 -3030.5	   329.8
     91.3000	   468.3	   545.6	 -2986.8	   330.5
     91.4000	   430.5	   483.2	 -2962.2	   331.2
     91.5000	   430.5	   449.7	 -2928.6	   331.9
     91.6000	   421.1	   433.5	 -2921.9	   332.6
     91.7000	   416.5	   426.8	 -2919.7	   333.2
     91.8000	   414.2	   424.5	 -2919.8	   333.9
     91.9000	   418.0	   423.6	 -2915.1	   334.1
     92.0000	   420.3	   423.6	 -2912.7	   334.1
     92.1000	   434.2	   424.0	 -2899.3	   334.1
     92.2000	   420.9	   424.9	 -2913.4	   334.1
     92.3000	   440.1	   414.0	 -2909.5	   334.1
     92.4000	   441.1	   414.0	 -2909.5	   334.1
     92.5000	   444.9	   414.0	 -2909.5	   334.1
     92.6000	   469.8	   414.0	 -2909.5	   334.1
     92.7000	   507.2	   414.0	 -2909.5	   334.1
     92.8000	   611.0	   414.0	 -2909.5	   334.1
     92.9000	   828.2	   414.0	 -2909.5	   334.1
     93.0000	  1188.9	   414.0	 -2909.5	   334.1
     93.1000	  1662.9	   414.0	 -2909.5	   334.1
     93.2000	  2078.7	   414.0	 -2909.5	   334.1
     93.3000	  2711.8	   414.0	 -2909.5	   334.1
     93.4000	  3334.8	   414.0	 -2909.5	   334.1
     93.5000	  3928.8	   414.0	 -2909.5	   334.1
     93.6000	  4452.1	   414.0	 -2909.5	   334.1
     93.7000	  4973.0	   414.0	 -2909.5	   334.1
     93.8000	  5364.5	   414.0	 -2909.5	   334.1
     93.9000	  5364.3	   414.0	 -2909.5	   334.1
     19.2723	        	        	        	        	       0	(  1  1  0)	  0  1
     27.3918	        	        	        	        	       0	(  2  0  0)	  0  1
     33.7164	        	        	        	        	       0	(  2  1  1)	  0  1
     39.1309	        	        	        	        	       0	(  2  2  0)	  0  1
     43.9774	        	        	        	        	       0	(  1  3  0)	  0  1
     43.9774	        	        	        	        	       0	(  3  1  0)	  0  1
     48.4312	        	        	        	        	       0	(  2  2  2)	  0  1
     52.5966	        	        	        	        	       0	(  2  3  1)	  0  1
     52.5966	        	        	        	        	       0	(  3  2  1)	  0  1
     56.5419	        	        	        	        	       0	(  4  0  0)	  0  1
     60.3152	        	        	        	        	       0	(  3  3  0)	  0  1
     60.3152	        	        	        	        	       0	(  4  1  1)	  0  1
     63.9516	        	        	        	        	       0	(  2  4  0)	  0  1
     63.9516	        	        	        	        	       0	(  4  2  0)	  0  1
     67.4785	        	        	        	        	       0	(  3  3  2)	  0  1
     70.9175	        	        	        	        	       0	(  4  2  2)	  0  1
     74.2865	        	        	        	        	       0	(  1  5  0)	  0  1
     74.2865	        	        	        	        	       0	(  3  4  1)	  0  1
     74.2865	        	        	        	        	       0	(  4  3  1)	  0  1
     74.2865	        	        	        	        	       0	(  5  1  0)	  0  1
     80.8730	        	        	        	        	       0	(  2  5  1)	  0  1
     80.8730	        	        	        	        	       0	(  5  2  1)	  0  1
     84.1157	        	        	        	        	       0	(  4  4  0)	  0  1
     87.3396	        	        	        	        	       0	(  3  5  0)	  0  1
     87.3396	        	        	        	        	       0	(  4  3  3)	  0  1
     87.3396	        	        	        	        	       0	(  5  3  0)	  0  1
     90.5551	        	        	        	        	       0	(  4  4  2)	  0  1
     90.5551	        	        	        	        	       0	(  6  0  0)	  0  1
     93.7725	        	        	        	        	       0	(  3  5  2)	  0  1
     93.7725	        	        	        	        	       0	(  5  3  2)	  0  1
     93.7725	        	        	        	        	       0	(  6  1  1)	  0  1
     97.0018	        	        	        	        	       0	(  2  6  0)	  0  1
     97.0018	        	        	        	        	       0	(  6  2  0)	  0  1
    100.2537	        	        	        	        	       0	(  4  5  1)	  0  1
    100.2537	        	        	        	        	       0	(  5  4  1)	  0  1
